Multi Channel Experimenter Burst Analyzer ASCII Export


Parameters:

t	12	12	12	
	Duration	Count	Frequency	
[s]	[ms]	[-]	[Hz]	
421.27380	421.20	16	35.613	
1115.09720	93.60	3	21.368	
1193.35120	654.30	17	24.454	
1289.80370	449.20	17	35.619	
1394.10050	637.30	17	25.106	
1410.20100	65.90	4	45.524	
1429.44290	356.60	12	30.847	
1488.12630	385.20	15	36.345	
1521.75630	297.20	13	40.377	
1590.37700	150.00	14	86.667	
1608.08290	98.60	8	70.994	
1668.42160	322.60	8	21.699	
1680.55790	85.10	11	117.509	
1703.10790	108.50	15	129.032	
1714.08890	76.00	11	131.579	
1731.47940	73.20	12	150.273	
1791.33350	118.60	12	92.749	
1807.75910	236.00	5	16.949	
1858.70990	30.50	2	32.787	
1869.57830	246.80	13	48.622	
1908.14100	98.80	6	50.607	
1918.86570	300.70	11	33.256	
1936.32490	65.50	8	106.870	
1971.81440	56.70	6	88.183	
1991.41470	98.60	15	141.988	
2001.70730	20.40	3	98.039	
2030.58800	80.10	7	74.906	
2046.10100	77.90	7	77.022	
2088.42560	88.80	9	90.090	
2104.66650	105.60	11	94.697	
2118.44200	48.80	6	102.459	
2124.41200	23.70	2	42.194	
2134.21720	18.80	3	106.383	
2154.75970	60.20	6	83.056	
2193.30630	142.70	11	70.077	
2241.39570	104.90	11	95.329	
2281.39960	307.10	15	45.588	
2304.03790	99.90	6	50.050	
2328.51890	341.90	8	20.474	
2380.12300	105.90	9	75.543	
2425.07280	89.00	8	78.652	
2476.05870	116.70	11	85.690	
2503.66660	83.90	4	35.757	
2519.33930	13.80	3	144.928	
2586.64940	61.80	3	32.362	
2786.53550	184.80	7	32.468	
2809.40080	95.60	7	62.762	

t	13	13	13	
	Duration	Count	Frequency	
[s]	[ms]	[-]	[Hz]	
221.90160	242.40	27	107.261	
256.90940	707.40	6	7.068	
392.35440	89.30	10	100.784	
421.25440	770.80	13	15.568	
651.19050	435.90	10	20.647	
676.55800	187.60	2	5.330	
708.30020	427.30	17	37.444	
739.42140	452.20	2	2.211	
797.25110	109.60	2	9.124	
894.78730	426.00	2	2.347	
953.52050	290.70	12	37.840	
964.70820	808.50	20	23.500	
990.98000	108.40	2	9.225	
994.42220	579.30	21	34.524	
1012.22630	471.80	18	36.032	
1115.03950	620.80	19	28.995	
1193.33200	2218.00	39	17.133	
1258.27940	275.80	3	7.252	
1267.63030	464.70	16	32.279	
1289.78560	1549.60	13	7.744	
1391.12950	462.20	24	49.762	
1394.08230	2039.50	43	20.593	
1429.42000	1448.80	22	14.495	
1447.60920	371.90	31	80.667	
1468.01220	409.10	29	68.443	
1488.09990	1890.20	24	12.168	
1501.63890	182.70	2	5.473	
1521.73550	1393.50	13	8.611	
1590.34610	1544.50	35	22.014	
1607.86740	682.30	13	17.588	
1624.79500	364.40	27	71.350	
1630.44360	325.40	14	39.951	
1646.87110	724.60	3	2.760	
1656.94670	409.10	4	7.333	
1668.38800	1562.40	12	7.040	
1680.53980	520.80	14	24.962	
1703.09760	1012.90	16	14.809	
1714.05680	461.60	9	17.331	
1724.06500	280.70	3	7.125	
1730.64860	2077.30	17	7.702	
1767.00540	293.10	3	6.824	
1776.29170	313.60	2	3.189	
1791.30330	2157.60	21	9.270	
1802.93990	119.30	2	8.382	
1807.69560	1344.10	24	17.112	
1858.61630	579.70	26	43.126	
1869.04920	2022.00	15	6.924	
1874.94610	724.60	3	2.760	
1891.02390	233.00	3	8.584	
1908.10550	1259.50	11	7.940	
1913.99020	494.30	2	2.023	
1918.84500	546.50	13	21.958	
1931.98550	342.20	25	70.134	
1936.29710	507.50	7	11.823	
1965.21390	424.10	2	2.358	
1968.44650	41.50	2	24.096	
1971.77780	911.80	15	15.354	
1975.38820	487.10	2	2.053	
1980.70340	154.80	2	6.460	
1986.06770	1447.30	4	2.073	
1991.08700	871.20	10	10.331	
2001.63860	502.30	14	25.881	
2030.55860	958.40	6	5.217	
2046.04480	553.80	11	18.057	
2071.52140	375.20	15	37.313	
2088.38440	594.70	10	15.134	
2093.29060	145.50	2	6.873	
2104.62260	554.00	17	28.881	
2114.29960	5000.80	53	10.398	
2124.34610	880.10	22	23.861	
2134.16340	2799.30	23	7.859	
2141.52790	905.80	16	16.560	
2145.51230	290.10	2	3.447	
2154.71180	1121.30	15	12.486	
2159.62700	12.80	2	78.125	
2193.26670	752.90	15	18.595	
2198.15600	2599.40	7	2.308	
2227.08450	1134.20	4	2.645	
2235.39920	1561.90	5	2.561	
2240.25920	1749.20	15	8.004	
2246.96180	755.10	3	2.649	
2250.92140	440.60	7	13.618	
2253.37700	2539.70	9	3.150	
2262.10660	685.10	4	4.379	
2267.21290	262.30	2	3.812	
2281.35780	687.40	13	17.457	
2303.99630	1147.50	13	10.458	
2313.69520	430.50	2	2.323	
2320.25650	2616.50	5	1.529	
2326.39730	3098.30	18	5.487	
2335.07100	158.20	2	6.321	
2359.67220	537.60	24	42.783	
2376.32120	441.20	2	2.267	
2380.07370	2504.30	19	7.188	
2390.97280	443.70	19	40.568	
2424.95540	703.90	18	24.151	
2444.74090	272.20	2	3.674	
2461.44440	42.20	2	23.697	
2476.02260	1481.10	17	10.803	
2503.61130	1369.20	14	9.495	
2518.77820	1066.00	19	16.886	
2545.29870	82.70	2	12.092	
2560.12710	367.60	20	51.687	
2571.44160	362.40	2	2.759	
2586.58760	1051.60	18	16.166	
2624.07510	550.20	17	29.080	
2655.64140	1175.00	24	19.574	
2685.47330	596.30	26	41.925	
2694.31900	786.90	30	36.853	
2716.50320	1648.40	23	13.346	
2742.37500	3197.80	25	7.505	
2785.52660	4452.80	81	17.966	
2793.22750	30.80	2	32.468	
2809.37570	1039.30	12	10.584	

t	14	14	14	
	Duration	Count	Frequency	
[s]	[ms]	[-]	[Hz]	
29.51000	409.50	9	19.536	
78.15590	355.40	9	22.510	
108.02960	93.20	5	42.918	
180.72340	159.10	9	50.283	
364.05660	289.90	6	17.247	
421.25120	1427.30	26	17.516	
582.39190	1794.10	14	7.246	
651.49800	94.20	10	95.541	
658.37810	38.90	4	77.121	
676.53230	20.80	3	96.154	
703.17810	45.60	8	153.509	
797.30270	66.10	5	60.514	
947.19480	215.70	6	23.180	
953.34190	454.30	16	33.018	
964.97450	558.80	7	10.737	
994.40240	530.40	4	5.656	
1012.20450	365.20	8	19.168	
1026.14220	16.40	3	121.951	
1041.27260	13.50	3	148.148	
1115.00770	803.50	9	9.956	
1193.33080	1975.60	34	16.704	
1205.86140	34.20	3	58.480	
1267.63020	465.00	9	17.204	
1289.78590	1505.70	21	13.283	
1391.05410	493.60	20	38.493	
1394.08230	1704.80	30	17.011	
1429.42090	1483.50	28	18.200	
1447.58620	461.90	8	15.155	
1467.99200	426.00	7	14.085	
1488.10510	1512.40	37	23.803	
1521.73220	1023.00	7	5.865	
1590.34360	1657.10	15	8.448	
1608.04690	531.30	3	3.764	
1624.79440	407.70	11	24.528	
1630.43840	395.70	7	15.163	
1645.12830	32.00	5	125.000	
1668.38730	1060.70	18	16.027	
1680.53990	515.20	7	11.646	
1703.09720	1009.10	10	8.919	
1707.79700	485.70	6	10.294	
1714.05340	480.40	4	6.245	
1731.46060	517.50	3	3.865	
1791.30200	1025.50	7	5.851	
1807.69390	1020.50	20	18.618	
1858.60560	531.20	7	11.295	
1869.54250	873.00	7	6.873	
1908.10670	995.00	7	6.030	
1918.84350	540.00	6	9.259	
1931.96160	425.80	8	16.440	
1936.29670	532.50	4	5.634	
1971.78130	764.60	4	3.924	
1987.03010	24.30	3	82.305	
1991.37660	570.50	5	7.011	
2001.63780	138.50	2	7.220	
2030.55600	1088.80	5	3.674	
2046.04250	532.70	5	7.509	
2071.47350	431.00	25	55.684	
2076.74990	468.70	11	21.336	
2088.39030	987.10	4	3.039	
2104.61950	536.30	4	5.594	
2117.10680	1720.50	16	8.718	
2124.35140	442.30	7	13.565	
2134.16670	526.50	5	7.597	
2136.92210	82.20	8	85.158	
2141.53080	477.50	7	12.565	
2154.70930	529.20	4	5.669	
2193.27660	1003.20	9	7.974	
2241.34530	1071.30	6	4.667	
2281.36280	1026.60	10	8.767	
2303.99390	952.40	5	4.200	
2328.45650	1024.30	4	2.929	
2359.65880	519.80	6	9.619	
2380.07860	905.70	8	7.729	
2390.96160	428.20	7	14.012	
2424.99650	1185.50	7	5.061	
2451.36940	777.70	16	19.288	
2476.02140	1084.50	18	15.675	
2503.60780	637.30	5	6.276	
2519.27500	563.50	7	10.648	
2531.75110	128.60	10	69.984	
2560.06970	433.50	26	57.670	
2586.59020	1230.50	12	8.939	
2624.04460	615.70	6	8.121	
2656.18700	546.10	4	5.493	
2685.41840	521.30	7	11.510	
2694.28770	184.50	2	5.420	
2716.50350	461.00	10	19.523	
2721.94670	168.10	6	29.744	
2742.34450	611.70	7	9.809	
2786.50790	2796.60	39	13.588	
2809.37580	149.00	3	13.423	

t	15	15	15	
	Duration	Count	Frequency	
[s]	[ms]	[-]	[Hz]	

t	16	16	16	
	Duration	Count	Frequency	
[s]	[ms]	[-]	[Hz]	
140.28790	11.00	2	90.909	
222.58010	11.10	2	90.090	
235.37980	600.40	5	6.662	
319.35000	81.40	4	36.855	
347.69380	39.40	3	50.761	
413.87100	18.40	2	54.348	
425.60930	42.80	4	70.093	
444.08470	1447.90	9	5.525	

t	17	17	17	
	Duration	Count	Frequency	
[s]	[ms]	[-]	[Hz]	
421.27370	514.30	11	19.444	
965.00440	26.30	5	152.091	
1115.02410	43.40	5	92.166	
1193.35210	704.30	13	17.038	
1289.80310	503.60	8	13.900	
1394.10060	729.30	21	27.424	
1429.44070	504.90	12	21.786	
1468.00500	23.40	4	128.205	
1488.12150	533.60	9	14.993	
1521.75030	306.30	15	45.707	
1590.36170	661.90	13	18.130	
1608.06930	278.10	9	28.767	
1668.40750	264.10	16	56.797	
1680.55640	259.90	12	42.324	
1703.11780	290.70	9	27.520	
1714.07520	203.00	4	14.778	
1731.48150	239.80	8	29.191	
1791.32280	374.90	15	37.343	
1807.71860	252.80	13	47.468	
1858.62310	45.10	3	44.346	
1869.56080	296.30	21	67.499	
1908.12700	284.40	14	45.710	
1918.86600	319.40	9	25.047	
1936.31880	170.20	2	5.875	
1971.80500	251.00	12	43.825	
1991.39080	255.30	14	50.920	
2001.65930	259.10	6	19.298	
2030.57730	313.20	16	47.893	
2046.06120	262.50	9	30.476	
2088.41430	354.10	16	42.361	
2104.64060	179.00	3	11.173	
2118.42270	165.70	6	30.175	
2124.38370	57.60	4	52.083	
2134.18920	203.80	4	14.720	
2141.55980	189.10	5	21.153	
2154.72940	86.80	4	34.562	
2193.30300	271.40	8	25.792	
2241.37220	308.40	13	38.911	
2281.38540	311.40	13	38.536	
2304.01130	278.10	9	28.767	
2328.48000	256.30	6	19.508	
2359.68370	24.80	5	161.290	
2380.10040	248.80	5	16.077	
2425.02420	340.50	15	41.116	
2476.04620	249.50	8	28.056	
2503.63090	247.20	6	20.227	
2586.61360	315.90	11	31.656	
2624.06720	57.60	6	86.806	
2656.21990	11.80	4	254.237	
2742.36950	41.70	4	71.942	
2786.53030	1207.20	34	27.336	

t	21	21	21	
	Duration	Count	Frequency	
[s]	[ms]	[-]	[Hz]	
421.25970	532.90	10	16.889	
933.10100	45.00	4	66.667	
1079.86290	21.40	2	46.729	
1193.33710	666.90	13	17.994	
1289.78820	556.70	9	14.370	
1394.08890	710.00	10	12.676	
1429.44110	502.60	6	9.948	
1488.10430	552.90	8	12.661	
1521.73410	424.50	11	23.557	
1590.34180	667.50	8	10.487	
1608.04680	424.50	13	28.269	
1668.42830	311.40	7	19.268	
1680.53390	358.30	15	39.073	
1703.09510	346.10	12	31.783	
1714.05670	254.60	8	27.494	
1731.45870	350.50	14	37.090	
1769.83190	75.20	4	39.894	
1791.29980	383.00	17	41.775	
1807.69470	351.80	14	36.953	
1858.68570	55.40	8	126.354	
1869.54160	382.40	19	47.071	
1908.11030	324.20	13	37.014	
1918.84270	357.20	19	50.392	
1936.29670	277.90	11	35.984	
1971.79950	311.30	20	61.034	
1991.37720	315.20	17	50.761	
2001.65270	332.00	7	18.072	
2030.55320	400.90	23	54.877	
2046.05730	359.30	13	33.398	
2088.38940	379.40	15	36.900	
2104.63350	114.10	5	35.057	
2118.40060	100.40	5	39.841	
2124.38900	214.70	6	23.288	
2134.18560	269.50	7	22.263	
2141.52620	81.90	4	36.630	
2154.72650	331.40	5	12.070	
2193.28920	335.40	11	29.815	
2241.35150	359.90	17	44.457	
2281.37840	359.10	16	41.771	
2303.98860	285.50	15	49.037	
2328.46030	403.20	14	32.242	
2359.76290	22.00	3	90.909	
2380.07730	379.40	14	34.265	
2424.99870	401.60	17	39.841	
2476.01840	363.50	23	60.523	
2503.60270	330.50	11	30.257	
2519.27790	370.10	9	21.616	
2586.58950	395.60	15	35.389	
2742.49370	222.90	5	17.945	
2786.50580	1284.70	39	29.579	
2809.37740	312.40	10	28.809	

t	22	22	22	
	Duration	Count	Frequency	
[s]	[ms]	[-]	[Hz]	
32.92880	29.20	4	102.740	
398.92500	46.80	7	128.205	
421.23940	621.80	5	6.433	
516.34230	31.40	4	95.541	
544.68170	13.30	4	225.564	
651.16490	480.50	14	27.055	
685.16230	45.70	3	43.764	
965.07260	2003.60	11	4.991	
994.47320	305.40	11	32.744	
1115.08190	293.70	7	20.429	
1193.32880	787.90	5	5.077	
1289.78430	582.00	5	6.873	
1314.38900	10.30	3	194.175	
1394.07970	1286.30	8	5.442	
1429.42030	584.30	6	8.557	
1488.10330	581.40	6	8.600	
1521.67360	485.60	7	12.356	
1527.58760	499.90	2	2.000	
1590.34320	1560.40	14	8.331	
1608.03790	405.20	6	12.340	
1668.38500	399.70	3	5.004	
1680.53360	363.30	4	8.258	
1703.08840	409.80	5	9.761	
1714.05310	333.10	4	9.006	
1731.45520	399.90	9	20.005	
1747.25410	33.00	4	90.909	
1791.29670	468.50	10	19.210	
1807.69040	390.20	5	10.251	
1858.65920	266.10	11	37.580	
1869.53070	429.40	7	13.973	
1908.09990	421.40	5	9.492	
1918.83690	364.70	5	10.968	
1932.05160	14.90	2	67.114	
1936.29340	341.70	5	11.706	
1971.77990	415.90	8	16.831	
1991.37560	402.30	9	19.886	
2001.63630	323.70	11	30.893	
2030.55500	415.20	10	21.676	
2046.04390	373.80	13	32.103	
2088.38550	424.00	8	16.509	
2104.61830	338.30	10	26.604	
2118.40210	283.70	9	28.199	
2124.34250	317.30	8	22.061	
2134.16310	353.40	12	31.126	
2141.52520	299.60	11	33.378	
2154.72610	323.60	12	33.993	
2193.28240	412.60	10	21.813	
2241.34540	379.40	8	18.450	
2281.36260	420.20	10	21.418	
2303.99610	395.30	12	27.827	
2328.48780	362.60	8	19.305	
2359.73770	254.70	10	35.336	
2380.07440	402.60	9	19.871	
2391.03830	32.30	4	92.879	
2424.94360	504.60	16	29.727	
2476.01740	491.20	10	18.322	
2503.60410	383.60	8	18.248	
2519.27000	389.00	10	23.136	
2586.58300	448.90	9	17.821	
2624.12560	252.10	5	15.867	
2640.55310	337.80	11	29.603	
2656.26230	246.40	11	40.584	
2694.37990	22.50	3	88.889	
2742.42150	375.00	19	48.000	
2786.50350	1291.70	27	20.129	
2793.22740	37.30	2	26.810	
2809.37410	366.10	15	38.241	

t	23	23	23	
	Duration	Count	Frequency	
[s]	[ms]	[-]	[Hz]	
169.15660	61.80	5	64.725	
348.37170	118.90	5	33.642	
421.26320	418.00	15	33.493	
1115.10480	45.40	3	44.053	
1193.33830	554.10	12	19.852	
1289.79540	446.30	14	29.128	
1394.08920	326.00	10	27.607	
1429.42740	369.80	15	37.858	
1488.11350	351.90	14	36.942	
1521.74270	323.80	10	27.795	
1590.35320	329.70	13	36.397	
1608.05660	281.50	12	39.076	
1668.39480	320.20	13	37.477	
1680.54480	266.40	10	33.784	
1703.10370	286.90	9	27.884	
1714.06280	275.50	7	21.779	
1731.47040	239.70	8	29.203	
1791.30920	329.60	11	30.340	
1807.70300	278.70	11	35.881	
1869.54700	307.00	14	42.345	
1908.11420	303.70	10	29.635	
1918.85120	248.00	10	36.290	
1936.30200	170.90	2	5.851	
1971.78650	351.10	9	22.786	
1991.38390	263.00	8	26.616	
2001.64540	63.50	3	31.496	
2030.56470	242.40	9	33.003	
2046.04670	241.10	7	24.886	
2088.39710	294.50	14	44.143	
2104.62420	232.40	2	4.303	
2118.40760	53.10	2	18.832	
2134.17450	224.40	4	13.369	
2141.53330	45.40	3	44.053	
2154.71900	56.50	2	17.699	
2193.29590	226.30	3	8.838	
2241.35660	305.30	6	16.377	
2281.37210	237.00	6	21.097	
2303.99630	264.30	9	30.269	
2328.46480	295.50	5	13.536	
2380.08900	272.20	6	18.369	
2425.01260	257.90	3	7.755	
2476.02890	292.00	3	6.849	
2503.61990	74.40	4	40.323	
2519.28890	47.80	3	41.841	
2586.59810	304.80	7	19.685	
2786.51500	96.20	4	31.185	
2809.38340	189.50	5	21.108	

t	24	24	24	
	Duration	Count	Frequency	
[s]	[ms]	[-]	[Hz]	
244.60020	342.60	17	46.702	
376.68510	588.50	25	40.782	
407.41470	66.20	3	30.211	
421.22420	1354.30	34	24.367	
550.60740	551.00	13	21.779	
651.17910	527.10	20	36.046	
688.42860	72.20	7	83.102	
964.99220	427.90	7	14.022	
994.41540	439.40	4	6.827	
1012.22430	332.60	5	12.026	
1115.01350	472.80	3	4.230	
1193.32290	1630.50	27	15.946	
1267.64240	362.20	15	38.653	
1289.77870	1391.20	16	10.782	
1391.07220	273.70	6	18.268	
1394.07410	1684.50	36	20.778	
1429.41080	1426.20	13	8.414	
1447.60890	363.70	16	41.243	
1457.62000	403.50	6	12.392	
1467.99760	340.30	16	44.079	
1488.09720	1159.90	20	16.381	
1521.72920	479.70	3	4.169	
1590.33080	1543.40	25	15.550	
1608.03340	499.90	4	6.001	
1624.84740	215.60	5	18.553	
1630.44210	249.60	6	20.032	
1668.38050	719.00	6	6.954	
1680.52830	454.10	4	6.606	
1703.08460	490.80	5	8.150	
1714.04150	463.30	3	4.317	
1731.45130	483.40	8	14.481	
1791.29380	525.10	4	5.713	
1807.69020	935.50	7	6.414	
1842.57970	365.20	8	19.168	
1858.61050	417.00	6	11.990	
1869.53000	520.40	6	9.608	
1908.10080	507.60	5	7.880	
1918.83110	465.30	5	8.597	
1931.96850	291.80	12	37.697	
1936.28490	470.80	5	8.496	
1971.77520	816.30	3	2.450	
1991.36910	496.60	4	6.041	
2001.63020	445.50	8	15.713	
2030.55240	1071.20	4	2.801	
2046.03280	469.50	6	10.650	
2088.38060	512.70	5	7.802	
2104.61690	449.60	5	8.897	
2117.12330	1679.60	15	8.335	
2124.33380	414.00	5	9.662	
2134.15900	450.50	4	6.659	
2141.52230	437.80	9	18.273	
2154.70700	445.70	5	8.975	
2193.27910	484.90	5	8.249	
2241.33970	511.80	3	3.908	
2281.35520	540.00	6	9.259	
2303.98660	521.40	7	11.507	
2310.72100	513.10	5	7.796	
2328.44870	492.20	6	10.158	
2359.66590	426.30	13	28.149	
2380.07430	510.80	7	11.746	
2390.96980	279.40	6	17.895	
2424.98540	540.70	4	5.548	
2441.88440	75.10	8	93.209	
2476.01490	1039.50	8	6.734	
2503.59920	530.30	9	15.086	
2519.26680	490.40	5	8.157	
2586.58110	542.10	6	9.223	
2624.05460	467.60	10	19.247	
2656.19810	461.10	10	19.519	
2685.45260	342.30	22	61.350	
2694.30030	413.50	18	41.112	
2716.62260	29.90	4	100.334	
2742.36470	480.30	6	10.410	
2786.49870	1356.80	15	10.318	
2809.37170	479.30	7	12.518	

t	25	25	25	
	Duration	Count	Frequency	
[s]	[ms]	[-]	[Hz]	

t	26	26	26	
	Duration	Count	Frequency	
[s]	[ms]	[-]	[Hz]	
421.25960	616.60	7	9.731	
994.42000	309.20	5	12.937	
1115.02330	374.60	17	42.712	
1193.33800	756.90	10	11.891	
1289.79270	634.00	11	15.773	
1394.08570	758.80	8	9.225	
1429.42650	570.70	8	12.266	
1447.61320	31.90	2	31.348	
1468.00330	36.00	4	83.333	
1488.11020	552.30	4	5.432	
1521.73950	402.10	7	14.922	
1590.35330	726.00	9	11.019	
1608.05590	350.80	11	28.506	
1630.45460	31.70	2	31.546	
1668.39540	364.90	11	27.405	
1680.54440	336.70	8	20.790	
1703.10590	385.80	8	18.144	
1714.06050	317.80	9	25.173	
1731.46780	361.30	12	30.446	
1791.30700	422.70	14	30.755	
1807.70020	347.70	7	17.256	
1858.62410	253.40	2	3.946	
1869.54890	377.80	5	10.588	
1908.11250	380.20	9	21.042	
1918.84850	328.90	9	24.324	
1931.98150	19.40	2	51.546	
1936.30340	333.30	13	36.004	
1971.78740	364.40	4	8.233	
1991.38190	390.90	12	28.140	
2001.64540	316.90	8	22.089	
2030.56200	386.50	7	15.524	
2046.05010	360.90	8	19.396	
2088.39640	410.40	6	12.183	
2104.62380	310.60	11	32.196	
2117.13070	1532.70	13	7.829	
2124.36820	271.00	12	40.590	
2134.17690	330.00	15	42.424	
2141.54080	222.20	13	54.005	
2154.72090	353.40	18	48.104	
2193.29150	375.50	10	23.968	
2241.35600	400.10	9	19.995	
2281.36980	422.70	10	21.292	
2303.99750	375.80	9	21.288	
2328.46440	362.30	10	24.841	
2359.67860	46.80	3	42.735	
2380.09280	390.30	15	35.870	
2390.97480	34.30	4	87.464	
2425.01140	388.80	10	23.148	
2476.03030	425.40	7	14.104	
2503.61730	372.20	11	26.867	
2519.28350	366.30	13	32.760	
2586.59530	421.00	9	19.002	
2624.06960	293.30	7	20.457	
2656.20540	226.40	4	13.251	
2694.31060	37.50	3	53.333	
2742.36800	296.90	16	50.522	
2786.51500	1232.10	36	28.407	
2809.38300	295.80	11	33.807	

t	27	27	27	
	Duration	Count	Frequency	
[s]	[ms]	[-]	[Hz]	
421.26970	426.40	19	42.214	
1193.34620	585.70	22	35.855	
1289.80270	394.30	20	48.187	
1394.09770	636.90	11	15.701	
1427.79520	1978.50	7	3.033	
1488.11810	411.70	19	43.721	
1521.74650	243.10	5	16.454	
1551.32760	92.20	9	86.768	
1590.36130	570.70	11	17.522	
1608.06090	65.60	8	106.707	
1668.40400	54.40	2	18.382	
1680.55840	12.90	2	77.519	
1703.11500	51.50	3	38.835	
1731.47790	49.00	3	40.816	
1791.32590	216.20	4	13.876	
1807.70870	53.50	5	74.766	
1869.55390	213.70	4	14.038	
1908.11270	73.10	5	54.720	
1918.86260	52.80	3	37.879	
1936.31950	43.70	2	22.883	
1971.81050	46.20	4	64.935	
1991.37980	68.90	7	87.083	
2001.65580	36.60	7	163.934	
2046.06430	42.90	5	93.240	
2088.40960	55.40	5	72.202	
2104.64120	39.00	4	76.923	
2118.42180	34.30	2	29.155	
2134.18940	34.30	5	116.618	
2154.72930	53.40	7	112.360	
2193.30340	70.50	3	28.369	
2241.37230	66.40	6	75.301	
2281.38400	62.20	5	64.309	
2304.01270	57.80	4	51.903	
2328.47930	58.90	4	50.934	
2380.10710	46.70	4	64.240	
2425.02980	57.00	4	52.632	
2476.04600	68.30	3	29.283	
2503.63730	45.30	5	88.300	
2519.29700	47.00	6	106.383	
2586.61990	52.60	4	57.034	
2786.52950	401.50	7	14.944	
2809.40320	13.90	3	143.885	

t	28	28	28	
	Duration	Count	Frequency	
[s]	[ms]	[-]	[Hz]	
421.29530	46.40	4	64.655	
1193.36410	48.90	6	102.249	
1394.11340	46.90	3	42.644	
1429.45330	76.40	4	39.267	
1590.38050	73.80	2	13.550	
1908.13990	15.20	2	65.789	

t	31	31	31	
	Duration	Count	Frequency	
[s]	[ms]	[-]	[Hz]	

t	32	32	32	
	Duration	Count	Frequency	
[s]	[ms]	[-]	[Hz]	

t	33	33	33	
	Duration	Count	Frequency	
[s]	[ms]	[-]	[Hz]	

t	34	34	34	
	Duration	Count	Frequency	
[s]	[ms]	[-]	[Hz]	
5.86070	114.80	10	78.397	
26.56840	277.60	5	14.409	
33.13630	30.70	3	65.147	
94.48810	675.10	18	25.181	
103.18920	27.90	4	107.527	
108.37900	353.00	13	33.994	
132.69700	56.00	5	71.429	
206.51680	73.80	2	13.550	
211.58140	815.20	10	11.040	
276.78250	22.50	3	88.889	
297.27920	34.30	5	116.618	
375.00670	10.60	2	94.340	
402.76750	361.30	3	5.536	
421.10940	1356.10	33	23.597	
465.75260	21.10	2	47.393	
474.68400	22.20	2	45.045	
499.20480	56.60	4	53.004	
